# temperature and density at unit angle-averaged monochromatic optical depth
# depth limits log(m) [-5.0, 5.0] cm^2/g
# idx	E(keV)		m (cm^2/g)	T		rho
 0	1.303846e-02	-1.045720	5.845021	-0.678569	-3.961415	5.220630	-2.991474
 1	2.524478e-02	-0.397905	5.991861	-0.173988	-3.483603	5.310645	-2.597450
 2	4.426074e-02	0.000090	6.079267	0.139715	-3.033085	5.407785	-2.240459
 3	6.573579e-02	0.602068	6.169826	0.670487	-2.776877	5.456459	-2.036909
 4	8.475174e-02	0.903093	6.213913	0.940841	-2.509254	5.514538	-1.819568
 5	9.695806e-02	1.000002	6.231998	1.022663	-2.393227	5.538805	-1.726470
 6	1.455877e-01	1.301037	6.274850	1.299096	-2.070768	5.608600	-1.471774
 7	3.022601e-01	2.000005	6.414243	1.884634	-1.467668	5.749987	-1.009480
 8	4.589326e-01	1.653492	6.336172	1.607819	-1.089077	5.834822	-0.712027
 9	5.123078e-01	1.302354	6.275056	1.300192	-0.994801	5.856723	-0.639777
10	5.415228e-01	0.856356	6.205134	0.901300	-0.965654	5.861713	-0.618373
11	5.796402e-01	0.856622	6.205182	0.901522	-0.926306	5.868901	-0.588883
12	6.088552e-01	1.201572	6.257815	1.206098	-0.895489	5.874912	-0.565329
13	6.598415e-01	1.551093	6.316680	1.520733	-0.841216	5.886359	-0.522917
14	8.083040e-01	1.980578	6.409642	1.869304	-0.643850	5.933558	-0.365452
15	9.567666e-01	2.135411	6.437177	1.995935	-0.494257	5.969029	-0.249074
16	1.303846e+00	2.386126	6.492912	2.203755	-0.257947	6.023396	-0.065393
17	2.524478e+00	2.739809	6.581242	2.472627	0.164422	6.102902	0.277770
18	4.426074e+00	3.002804	6.647778	2.668395	0.415923	6.143563	0.501377
19	6.573579e+00	3.119816	6.672895	2.750620	0.496459	6.155108	0.574692
20	8.475174e+00	3.205211	6.694786	2.814587	0.512385	6.157135	0.588996
21	9.695806e+00	3.309661	6.725435	2.895505	0.517098	6.157747	0.593239
22	1.072976e+01	3.331366	6.730820	2.909732	0.519534	6.158066	0.595434
23	1.366237e+01	3.374598	6.742160	2.938791	0.522911	6.158510	0.598479
24	1.823101e+01	3.382848	6.744420	2.944443	0.524593	6.158733	0.599997
25	2.339045e+01	3.320679	6.728143	2.902696	0.525199	6.158813	0.600544
26	2.795910e+01	3.215186	6.697556	2.822260	0.525440	6.158845	0.600761
27	3.089170e+01	3.153256	6.681087	2.775291	0.525543	6.158859	0.600854
