# temperature and density at unit angle-averaged monochromatic optical depth
# depth limits log(m) [-5.0, 4.5] cm^2/g
# idx	E(keV)		m (cm^2/g)	T		rho
 0	1.303846e-02	-1.154846	5.765835	-0.694656	-4.076902	5.124073	-2.996642
 1	2.524478e-02	-0.522832	5.906045	-0.197018	-3.612834	5.211505	-2.617288
 2	4.426074e-02	0.000028	6.008686	0.233862	-3.136576	5.318511	-2.242361
 3	6.573579e-02	0.477153	6.057966	0.699395	-2.855747	5.378049	-2.027971
 4	8.475174e-02	0.698976	6.087957	0.910981	-2.625756	5.431573	-1.844039
 5	9.695806e-02	0.845102	6.113637	1.041321	-2.493871	5.461375	-1.738959
 6	1.629883e-01	1.301033	6.184393	1.479555	-2.044645	5.550161	-1.370861
 7	3.350843e-01	1.528063	6.230016	1.677025	-1.464730	5.693730	-0.935956
 8	4.042179e-01	1.015628	6.142160	1.196933	-1.283734	5.736612	-0.795730
 9	4.272689e-01	0.608213	6.073569	0.827494	-1.253775	5.743252	-0.772354
10	4.573441e-01	0.610181	6.073855	0.829289	-1.188764	5.757963	-0.721402
11	4.803951e-01	1.002840	6.140773	1.184317	-1.137694	5.769585	-0.681409
12	5.221856e-01	1.312612	6.186305	1.489803	-1.072205	5.784485	-0.630340
13	6.559743e-01	1.722614	6.276953	1.829736	-0.909609	5.817153	-0.505961
14	8.305312e-01	1.965426	6.334173	2.022745	-0.682058	5.869763	-0.322403
15	9.643199e-01	2.055238	6.351978	2.095345	-0.598116	5.887612	-0.257513
16	1.303846e+00	2.189515	6.379121	2.210630	-0.344654	5.943928	-0.055380
17	2.524478e+00	2.528542	6.463227	2.478928	0.088218	6.014891	0.320942
18	4.426074e+00	2.799460	6.535201	2.669525	0.344055	6.040346	0.572456
19	6.573579e+00	2.982593	6.583415	2.798646	0.414007	6.049023	0.638948
20	8.475174e+00	3.078800	6.604849	2.862977	0.435708	6.051972	0.659678
21	9.695806e+00	3.122940	6.615300	2.893493	0.442132	6.052869	0.665824
22	1.072976e+01	3.155257	6.623476	2.916433	0.445450	6.053337	0.669000
23	1.366237e+01	3.219883	6.641232	2.963752	0.450043	6.053990	0.673398
24	1.823101e+01	3.244885	6.648625	2.982554	0.452308	6.054314	0.675567
25	2.339045e+01	3.189405	6.632619	2.941201	0.453100	6.054428	0.676326
26	2.795910e+01	3.101712	6.610173	2.878698	0.453396	6.054471	0.676609
27	3.089170e+01	3.038851	6.596072	2.836198	0.453514	6.054488	0.676723
