# temperature and density at unit angle-averaged monochromatic optical depth
# depth limits log(m) [-5.0, 5.0] cm^2/g
# idx	E(keV)		m (cm^2/g)	T		rho
 0	1.303846e-02	-0.999969	5.907545	-0.705501	-3.903248	5.294849	-3.017089
 1	2.524478e-02	-0.300761	6.066437	-0.162332	-3.394244	5.390751	-2.594517
 2	4.426074e-02	0.301041	6.189515	0.321947	-2.976959	5.477443	-2.264104
 3	6.573579e-02	0.699033	6.253210	0.664928	-2.669057	5.537523	-2.013437
 4	8.475174e-02	1.000001	6.302346	0.924348	-2.475744	5.576547	-1.857604
 5	9.695806e-02	1.000008	6.302347	0.924353	-2.361765	5.599837	-1.765616
 6	1.507215e-01	1.602061	6.404249	1.442364	-1.985787	5.680992	-1.469778
 7	3.250364e-01	2.301030	6.539098	2.026083	-1.355331	5.828465	-0.984381
 8	4.993513e-01	1.816072	6.442164	1.624900	-0.980863	5.910735	-0.691566
 9	5.585632e-01	1.399880	6.365926	1.270654	-0.916817	5.922310	-0.643677
10	5.904160e-01	0.980246	6.298326	0.908116	-0.881322	5.929348	-0.616390
11	6.319750e-01	0.977778	6.297833	0.906097	-0.834612	5.939332	-0.579715
12	6.638278e-01	1.379381	6.362323	1.253163	-0.799067	5.947511	-0.551254
13	7.092421e-01	1.703813	6.422466	1.528968	-0.685686	5.976131	-0.459002
14	8.361417e-01	2.050348	6.490965	1.810823	-0.591679	5.997108	-0.387859
15	9.630413e-01	2.199384	6.516858	1.936721	-0.461799	6.028244	-0.287297
16	1.303846e+00	2.512570	6.586309	2.191946	-0.203521	6.088480	-0.087086
17	2.524478e+00	2.877600	6.674528	2.471562	0.199169	6.167012	0.234404
18	4.426074e+00	3.098117	6.724971	2.633693	0.441572	6.212869	0.440043
19	6.573579e+00	3.231757	6.758699	2.735271	0.514301	6.224871	0.503016
20	8.475174e+00	3.361261	6.794494	2.831478	0.528990	6.226968	0.515833
21	9.695806e+00	3.393602	6.803270	2.854109	0.533246	6.227587	0.519557
22	1.072976e+01	3.416355	6.809733	2.870330	0.535430	6.227907	0.521469
23	1.366237e+01	3.493022	6.832294	2.925488	0.538444	6.228350	0.524110
24	1.823101e+01	3.478574	6.828579	2.915787	0.539948	6.228573	0.525430
25	2.339045e+01	3.371261	6.797157	2.838421	0.540506	6.228655	0.525919
26	2.795910e+01	3.260243	6.766926	2.757855	0.540742	6.228690	0.526126
27	3.089170e+01	3.193495	6.748242	2.705433	0.540848	6.228706	0.526219
