# temperature and density at unit angle-averaged monochromatic optical depth
# depth limits log(m) [-5.0, 4.5] cm^2/g
# idx	E(keV)		m (cm^2/g)	T		rho
 0	1.303846e-02	-1.154838	5.758686	-0.685231	-4.081732	5.115833	-2.991870
 1	2.524478e-02	-0.522829	5.898751	-0.187134	-3.617720	5.203465	-2.612620
 2	4.426074e-02	0.000026	5.998112	0.248988	-3.140273	5.310659	-2.236516
 3	6.573579e-02	0.477126	6.048792	0.715161	-2.860723	5.369644	-2.022660
 4	8.475174e-02	0.698978	6.080751	0.924650	-2.630014	5.422921	-1.837607
 5	9.695806e-02	0.845103	6.106675	1.055212	-2.497521	5.452801	-1.731907
 6	1.586247e-01	1.000022	6.133088	1.197259	-2.082126	5.536073	-1.393044
 7	3.187991e-01	1.491950	6.218280	1.659515	-1.496152	5.680127	-0.951371
 8	3.832504e-01	0.968216	6.126876	1.169425	-1.350712	5.713735	-0.838515
 9	4.051058e-01	0.527109	6.054127	0.764777	-1.285504	5.728705	-0.787236
10	4.336209e-01	0.529294	6.054373	0.766947	-1.219130	5.743997	-0.735360
11	4.554762e-01	0.954994	6.124399	1.157931	-1.194085	5.749521	-0.716026
12	4.987004e-01	1.214611	6.162558	1.409752	-1.121160	5.766221	-0.659182
13	6.390654e-01	1.711942	6.271392	1.830921	-0.929336	5.806522	-0.511940
14	8.222026e-01	1.955859	6.328443	2.026161	-0.690072	5.861249	-0.319096
15	9.625676e-01	2.044009	6.346307	2.097594	-0.603145	5.879346	-0.251839
16	1.303846e+00	2.170359	6.371336	2.205523	-0.348307	5.935162	-0.047346
17	2.524478e+00	2.510162	6.455917	2.475541	0.083888	6.003850	0.332801
18	4.426074e+00	2.783217	6.528890	2.665446	0.341771	6.029317	0.587722
19	6.573579e+00	2.966681	6.577319	2.793503	0.412891	6.038902	0.654394
20	8.475174e+00	3.060458	6.598967	2.855928	0.435165	6.042192	0.675410
21	9.695806e+00	3.102892	6.608739	2.884593	0.441778	6.043197	0.681662
22	1.072976e+01	3.133892	6.616352	2.906099	0.445199	6.043722	0.684897
23	1.366237e+01	3.195084	6.632619	2.949899	0.449937	6.044454	0.689381
24	1.823101e+01	3.214805	6.638226	2.964383	0.452277	6.044819	0.691596
25	2.339045e+01	3.153897	6.621485	2.920225	0.453097	6.044947	0.692373
26	2.795910e+01	3.062840	6.599496	2.857513	0.453406	6.044995	0.692665
27	3.089170e+01	2.996377	6.585273	2.814145	0.453530	6.045015	0.692783
